SpectraSuite Data File
++++++++++++++++++++++++++++++++++++
Date: Wed Mar 03 11:01:47 CST 2010
User: tesista
Dark Spectrum Present: No
Reference Spectrum Present: No
Number of Sampled Component Spectra: 1
Spectrometers: USB4C00849
Integration Time (usec): 100000 (USB4C00849)
Spectra Averaged: 1 (USB4C00849)
Boxcar Smoothing: 0 (USB4C00849)
Correct for Electrical Dark: No (USB4C00849)
Strobe/Lamp Enabled: No (USB4C00849)
Correct for Detector Non-linearity: No (USB4C00849)
Correct for Stray Light: No (USB4C00849)
Number of Pixels in Processed Spectrum: 3648
>>>>>Begin Processed Spectral Data<<<<<
177.83	780.28
178.05	780.28
178.26	780.28
178.48	716.79
178.70	788.47
178.92	835.57
179.13	788.47
179.35	815.09
179.57	784.37
179.78	792.56
180.00	862.19
180.22	892.91
180.43	761.84
180.65	823.28
180.87	784.37
181.08	829.43
181.30	913.39
181.52	827.38
181.73	798.71
181.95	792.56
182.17	827.38
182.38	884.72
182.60	882.67
182.82	886.77
183.03	937.97
183.25	894.96
183.47	845.81
183.68	854.00
183.90	821.24
184.11	872.43
184.33	837.62
184.55	796.66
184.76	839.67
184.98	784.37
185.20	847.86
185.41	851.96
185.63	935.92
185.85	823.28
186.06	882.67
186.28	917.49
186.50	796.66
186.71	780.28
186.93	790.52
187.15	784.37
187.36	940.02
187.58	854.00
187.80	872.43
188.01	757.75
188.23	815.09
188.44	776.18
188.66	806.90
188.88	790.52
189.09	890.87
189.31	876.53
189.53	815.09
189.74	794.61
189.96	899.06
190.18	821.24
190.39	829.43
190.61	878.58
190.82	847.86
191.04	813.04
191.26	856.05
191.47	806.90
191.69	823.28
191.91	843.76
192.12	835.57
192.34	870.39
192.55	792.56
192.77	831.48
192.99	845.81
193.20	829.43
193.42	919.54
193.64	854.00
193.85	811.00
194.07	821.24
194.28	792.56
194.50	802.80
194.72	868.34
194.93	843.76
195.15	847.86
195.36	858.10
195.58	868.34
195.80	786.42
196.01	878.58
196.23	872.43
196.44	790.52
196.66	864.24
196.88	827.38
197.09	835.57
197.31	876.53
197.52	827.38
197.74	876.53
197.96	864.24
198.17	909.30
198.39	888.82
198.60	792.56
198.82	864.24
199.04	897.01
199.25	870.39
199.47	890.87
199.68	817.14
199.90	804.85
200.12	888.82
200.33	819.19
200.55	860.15
200.76	905.20
200.98	798.71
201.20	860.15
201.41	800.76
201.63	890.87
201.84	819.19
202.06	794.61
202.27	880.63
202.49	847.86
202.71	796.66
202.92	813.04
203.14	808.95
203.35	905.20
203.57	806.90
203.78	862.19
204.00	866.29
204.22	813.04
204.43	868.34
204.65	854.00
204.86	851.96
205.08	882.67
205.29	800.76
205.51	829.43
205.73	851.96
205.94	874.48
206.16	829.43
206.37	897.01
206.59	849.91
206.80	845.81
207.02	856.05
207.24	847.86
207.45	854.00
207.67	866.29
207.88	804.85
208.10	819.19
208.31	884.72
208.53	786.42
208.74	821.24
208.96	845.81
209.18	870.39
209.39	823.28
209.61	839.67
209.82	796.66
210.04	880.63
210.25	845.81
210.47	886.77
210.68	874.48
210.90	786.42
211.11	864.24
211.33	888.82
211.55	899.06
211.76	905.20
211.98	847.86
212.19	774.13
212.41	825.33
212.62	849.91
212.84	829.43
213.05	835.57
213.27	864.24
213.48	813.04
213.70	884.72
213.91	860.15
214.13	944.11
214.35	796.66
214.56	872.43
214.78	808.95
214.99	886.77
215.21	786.42
215.42	880.63
215.64	858.10
215.85	890.87
216.07	833.52
216.28	804.85
216.50	823.28
216.71	806.90
216.93	886.77
217.14	905.20
217.36	864.24
217.57	833.52
217.79	862.19
218.00	880.63
218.22	860.15
218.43	944.11
218.65	845.81
218.86	884.72
219.08	931.83
219.29	897.01
219.51	817.14
219.72	862.19
219.94	886.77
220.16	839.67
220.37	806.90
220.59	866.29
220.80	808.95
221.02	913.39
221.23	819.19
221.45	919.54
221.66	753.65
221.88	886.77
222.09	831.48
222.31	899.06
222.52	776.18
222.73	843.76
222.95	899.06
223.16	858.10
223.38	888.82
223.59	798.71
223.81	872.43
224.02	897.01
224.24	866.29
224.45	847.86
224.67	800.76
224.88	892.91
225.10	786.42
225.31	888.82
225.53	866.29
225.74	868.34
225.96	790.52
226.17	927.73
226.39	874.48
226.60	894.96
226.82	823.28
227.03	788.47
227.25	829.43
227.46	831.48
227.68	759.80
227.89	858.10
228.11	811.00
228.32	890.87
228.53	858.10
228.75	821.24
228.96	888.82
229.18	864.24
229.39	860.15
229.61	899.06
229.82	780.28
230.04	894.96
230.25	911.35
230.47	835.57
230.68	923.63
230.90	806.90
231.11	790.52
231.32	864.24
231.54	923.63
231.75	862.19
231.97	811.00
232.18	837.62
232.40	888.82
232.61	821.24
232.83	831.48
233.04	757.75
233.26	851.96
233.47	841.72
233.68	847.86
233.90	800.76
234.11	876.53
234.33	845.81
234.54	843.76
234.76	811.00
234.97	790.52
235.19	894.96
235.40	839.67
235.61	815.09
235.83	819.19
236.04	856.05
236.26	825.33
236.47	878.58
236.69	868.34
236.90	772.08
237.11	876.53
237.33	845.81
237.54	870.39
237.76	821.24
237.97	843.76
238.19	847.86
238.40	851.96
238.61	833.52
238.83	880.63
239.04	786.42
239.26	823.28
239.47	886.77
239.69	833.52
239.90	903.15
240.11	829.43
240.33	841.72
240.54	835.57
240.76	813.04
240.97	909.30
241.18	864.24
241.40	831.48
241.61	837.62
241.83	819.19
242.04	786.42
242.26	856.05
242.47	837.62
242.68	866.29
242.90	878.58
243.11	874.48
243.33	843.76
243.54	901.11
243.75	911.35
243.97	856.05
244.18	886.77
244.40	835.57
244.61	917.49
244.82	872.43
245.04	897.01
245.25	872.43
245.47	815.09
245.68	880.63
245.89	819.19
246.11	854.00
246.32	835.57
246.53	821.24
246.75	870.39
246.96	892.91
247.18	927.73
247.39	942.07
247.60	890.87
247.82	817.14
248.03	837.62
248.25	884.72
248.46	835.57
248.67	815.09
248.89	811.00
249.10	854.00
249.31	872.43
249.53	829.43
249.74	839.67
249.96	792.56
250.17	913.39
250.38	868.34
250.60	808.95
250.81	851.96
251.02	851.96
251.24	847.86
251.45	878.58
251.67	802.80
251.88	837.62
252.09	858.10
252.31	823.28
252.52	915.44
252.73	794.61
252.95	851.96
253.16	880.63
253.37	784.37
253.59	872.43
253.80	827.38
254.01	876.53
254.23	870.39
254.44	903.15
254.66	821.24
254.87	901.11
255.08	849.91
255.30	907.25
255.51	843.76
255.72	899.06
255.94	892.91
256.15	880.63
256.36	872.43
256.58	872.43
256.79	866.29
257.00	849.91
257.22	786.42
257.43	886.77
257.64	829.43
257.86	776.18
258.07	851.96
258.28	888.82
258.50	782.32
258.71	925.68
258.92	931.83
259.14	815.09
259.35	839.67
259.56	862.19
259.78	854.00
259.99	829.43
260.20	864.24
260.42	856.05
260.63	864.24
260.84	815.09
261.06	864.24
261.27	894.96
261.48	815.09
261.70	823.28
261.91	821.24
262.12	839.67
262.34	815.09
262.55	862.19
262.76	872.43
262.97	917.49
263.19	856.05
263.40	864.24
263.61	907.25
263.83	847.86
264.04	903.15
264.25	880.63
264.47	774.13
264.68	831.48
264.89	878.58
265.11	813.04
265.32	894.96
265.53	802.80
265.74	864.24
265.96	835.57
266.17	847.86
266.38	837.62
266.60	827.38
266.81	804.85
267.02	819.19
267.24	831.48
267.45	823.28
267.66	864.24
267.87	806.90
268.09	851.96
268.30	798.71
268.51	872.43
268.73	878.58
268.94	819.19
269.15	821.24
269.36	880.63
269.58	794.61
269.79	802.80
270.00	843.76
270.22	925.68
270.43	884.72
270.64	888.82
270.85	802.80
271.07	806.90
271.28	847.86
271.49	796.66
271.71	843.76
271.92	894.96
272.13	847.86
272.34	806.90
272.56	909.30
272.77	860.15
272.98	888.82
273.19	913.39
273.41	858.10
273.62	866.29
273.83	866.29
274.04	821.24
274.26	890.87
274.47	880.63
274.68	774.13
274.90	864.24
275.11	794.61
275.32	870.39
275.53	815.09
275.75	833.52
275.96	903.15
276.17	804.85
276.38	894.96
276.60	851.96
276.81	878.58
277.02	892.91
277.23	849.91
277.45	909.30
277.66	796.66
277.87	897.01
278.08	907.25
278.30	917.49
278.51	849.91
278.72	829.43
278.93	876.53
279.14	880.63
279.36	874.48
279.57	847.86
279.78	829.43
279.99	815.09
280.21	860.15
280.42	856.05
280.63	815.09
280.84	864.24
281.06	841.72
281.27	837.62
281.48	884.72
281.69	866.29
281.90	825.33
282.12	837.62
282.33	860.15
282.54	829.43
282.75	862.19
282.97	860.15
283.18	940.02
283.39	886.77
283.60	837.62
283.81	888.82
284.03	927.73
284.24	753.65
284.45	905.20
284.66	839.67
284.88	765.94
285.09	847.86
285.30	829.43
285.51	901.11
285.72	892.91
285.94	796.66
286.15	901.11
286.36	835.57
286.57	876.53
286.78	845.81
287.00	841.72
287.21	845.81
287.42	798.71
287.63	882.67
287.84	837.62
288.06	884.72
288.27	860.15
288.48	837.62
288.69	802.80
288.90	804.85
289.12	841.72
289.33	837.62
289.54	890.87
289.75	827.38
289.96	923.63
290.17	860.15
290.39	929.78
290.60	903.15
290.81	843.76
291.02	890.87
291.23	876.53
291.45	757.75
291.66	892.91
291.87	892.91
292.08	831.48
292.29	858.10
292.50	815.09
292.72	751.60
292.93	856.05
293.14	856.05
293.35	927.73
293.56	946.16
293.78	866.29
293.99	870.39
294.20	819.19
294.41	841.72
294.62	811.00
294.83	831.48
295.04	856.05
295.26	888.82
295.47	901.11
295.68	962.55
295.89	897.01
296.10	817.14
296.31	847.86
296.53	872.43
296.74	851.96
296.95	827.38
297.16	903.15
297.37	839.67
297.58	835.57
297.80	823.28
298.01	843.76
298.22	899.06
298.43	897.01
298.64	831.48
298.85	854.00
299.06	854.00
299.28	841.72
299.49	872.43
299.70	927.73
299.91	784.37
300.12	821.24
300.33	870.39
300.54	856.05
300.76	837.62
300.97	862.19
301.18	862.19
301.39	821.24
301.60	821.24
301.81	874.48
302.02	950.26
302.23	880.63
302.45	913.39
302.66	913.39
302.87	915.44
303.08	888.82
303.29	890.87
303.50	849.91
303.71	833.52
303.92	905.20
304.14	880.63
304.35	886.77
304.56	823.28
304.77	813.04
304.98	815.09
305.19	837.62
305.40	872.43
305.61	901.11
305.82	796.66
306.04	894.96
306.25	872.43
306.46	851.96
306.67	845.81
306.88	880.63
307.09	946.16
307.30	866.29
307.51	831.48
307.72	819.19
307.93	858.10
308.15	843.76
308.36	856.05
308.57	909.30
308.78	886.77
308.99	919.54
309.20	919.54
309.41	882.67
309.62	792.56
309.83	929.78
310.04	927.73
310.26	835.57
310.47	894.96
310.68	892.91
310.89	833.52
311.10	899.06
311.31	876.53
311.52	811.00
311.73	935.92
311.94	905.20
312.15	952.31
312.36	974.83
312.57	983.02
312.78	1157.10
313.00	1153.01
313.21	1253.36
313.42	1191.92
313.63	1050.61
313.84	1062.90
314.05	1028.08
314.26	946.16
314.47	1011.70
314.68	1034.22
314.89	944.11
315.10	892.91
315.31	909.30
315.52	886.77
315.73	897.01
315.95	921.59
316.16	901.11
316.37	911.35
316.58	915.44
316.79	911.35
317.00	854.00
317.21	892.91
317.42	997.36
317.63	854.00
317.84	942.07
318.05	993.26
318.26	890.87
318.47	960.50
318.68	856.05
318.89	905.20
319.10	903.15
319.31	960.50
319.52	886.77
319.73	987.12
319.94	929.78
320.16	843.76
320.37	960.50
320.58	929.78
320.79	894.96
321.00	956.40
321.21	954.35
321.42	935.92
321.63	983.02
321.84	915.44
322.05	921.59
322.26	890.87
322.47	966.64
322.68	919.54
322.89	925.68
323.10	960.50
323.31	950.26
323.52	950.26
323.73	956.40
323.94	888.82
324.15	952.31
324.36	872.43
324.57	991.22
324.78	958.45
324.99	903.15
325.20	946.16
325.41	917.49
325.62	905.20
325.83	987.12
326.04	956.40
326.25	886.77
326.46	946.16
326.67	862.19
326.88	894.96
327.09	882.67
327.30	878.58
327.51	886.77
327.72	978.93
327.93	874.48
328.14	923.63
328.35	987.12
328.56	915.44
328.77	931.83
328.98	1011.70
329.19	927.73
329.40	923.63
329.61	876.53
329.82	929.78
330.03	923.63
330.24	903.15
330.45	913.39
330.66	909.30
330.87	915.44
331.08	966.64
331.29	1005.55
331.50	987.12
331.71	819.19
331.92	935.92
332.13	937.97
332.34	970.74
332.55	888.82
332.76	1003.50
332.97	968.69
333.18	962.55
333.39	927.73
333.60	942.07
333.81	968.69
334.02	950.26
334.23	1040.37
334.44	968.69
334.65	925.68
334.86	999.41
335.07	952.31
335.28	929.78
335.49	899.06
335.69	1001.46
335.90	915.44
336.11	968.69
336.32	987.12
336.53	929.78
336.74	929.78
336.95	929.78
337.16	897.01
337.37	903.15
337.58	987.12
337.79	966.64
338.00	954.35
338.21	970.74
338.42	909.30
338.63	929.78
338.84	897.01
339.05	958.45
339.26	919.54
339.47	915.44
339.68	972.79
339.88	923.63
340.09	950.26
340.30	921.59
340.51	993.26
340.72	991.22
340.93	897.01
341.14	1001.46
341.35	993.26
341.56	929.78
341.77	940.02
341.98	958.45
342.19	1032.18
342.40	995.31
342.61	995.31
342.81	923.63
343.02	989.17
343.23	985.07
343.44	944.11
343.65	919.54
343.86	980.98
344.07	948.21
344.28	899.06
344.49	915.44
344.70	1005.55
344.91	944.11
345.12	944.11
345.33	915.44
345.53	921.59
345.74	913.39
345.95	892.91
346.16	886.77
346.37	958.45
346.58	931.83
346.79	972.79
347.00	960.50
347.21	968.69
347.42	905.20
347.62	974.83
347.83	950.26
348.04	954.35
348.25	882.67
348.46	905.20
348.67	929.78
348.88	944.11
349.09	978.93
349.30	991.22
349.50	960.50
349.71	929.78
349.92	911.35
350.13	931.83
350.34	870.39
350.55	886.77
350.76	948.21
350.97	892.91
351.18	919.54
351.38	862.19
351.59	866.29
351.80	880.63
352.01	954.35
352.22	923.63
352.43	962.55
352.64	925.68
352.85	913.39
353.05	919.54
353.26	882.67
353.47	907.25
353.68	880.63
353.89	870.39
354.10	868.34
354.31	960.50
354.52	923.63
354.72	935.92
354.93	925.68
355.14	956.40
355.35	917.49
355.56	897.01
355.77	888.82
355.98	991.22
356.18	911.35
356.39	974.83
356.60	940.02
356.81	894.96
357.02	956.40
357.23	876.53
357.43	944.11
357.64	874.48
357.85	948.21
358.06	907.25
358.27	909.30
358.48	854.00
358.69	935.92
358.89	929.78
359.10	901.11
359.31	892.91
359.52	833.52
359.73	864.24
359.94	950.26
360.14	870.39
360.35	876.53
360.56	921.59
360.77	835.57
360.98	905.20
361.19	991.22
361.39	995.31
361.60	792.56
361.81	927.73
362.02	952.31
362.23	913.39
362.44	847.86
362.64	901.11
362.85	962.55
363.06	897.01
363.27	903.15
363.48	913.39
363.68	845.81
363.89	919.54
364.10	935.92
364.31	1042.42
364.52	1480.68
364.72	1648.61
364.93	1935.33
365.14	2148.32
365.35	2156.51
365.56	2078.69
365.76	1892.32
365.97	1804.26
366.18	1806.31
366.39	1570.79
366.60	1398.76
366.80	1196.01
367.01	1077.23
367.22	1079.28
367.43	940.02
367.64	876.53
367.84	890.87
368.05	862.19
368.26	921.59
368.47	878.58
368.68	905.20
368.88	856.05
369.09	829.43
369.30	827.38
369.51	849.91
369.72	923.63
369.92	966.64
370.13	946.16
370.34	878.58
370.55	915.44
370.75	851.96
370.96	839.67
371.17	882.67
371.38	892.91
371.59	831.48
371.79	823.28
372.00	886.77
372.21	856.05
372.42	831.48
372.62	858.10
372.83	862.19
373.04	876.53
373.25	819.19
373.45	806.90
373.66	899.06
373.87	856.05
374.08	886.77
374.28	821.24
374.49	864.24
374.70	929.78
374.91	849.91
375.11	872.43
375.32	901.11
375.53	839.67
375.74	897.01
375.94	921.59
376.15	849.91
376.36	829.43
376.57	827.38
376.77	876.53
376.98	901.11
377.19	845.81
377.40	894.96
377.60	909.30
377.81	962.55
378.02	919.54
378.23	864.24
378.43	880.63
378.64	845.81
378.85	925.68
379.06	874.48
379.26	894.96
379.47	937.97
379.68	897.01
379.89	892.91
380.09	919.54
380.30	976.88
380.51	874.48
380.71	890.87
380.92	839.67
381.13	952.31
381.34	942.07
381.54	858.10
381.75	888.82
381.96	903.15
382.16	884.72
382.37	937.97
382.58	927.73
382.79	888.82
382.99	817.14
383.20	917.49
383.41	935.92
383.61	868.34
383.82	825.33
384.03	917.49
384.24	835.57
384.44	870.39
384.65	843.76
384.86	868.34
385.06	968.69
385.27	919.54
385.48	892.91
385.68	905.20
385.89	792.56
386.10	862.19
386.30	897.01
386.51	927.73
386.72	874.48
386.93	829.43
387.13	831.48
387.34	839.67
387.55	829.43
387.75	817.14
387.96	854.00
388.17	886.77
388.37	864.24
388.58	845.81
388.79	876.53
388.99	884.72
389.20	870.39
389.41	878.58
389.61	876.53
389.82	868.34
390.03	884.72
390.23	843.76
390.44	872.43
390.65	899.06
390.85	876.53
391.06	849.91
391.27	890.87
391.47	845.81
391.68	856.05
391.89	884.72
392.09	897.01
392.30	813.04
392.51	929.78
392.71	874.48
392.92	880.63
393.13	829.43
393.33	790.52
393.54	872.43
393.75	878.58
393.95	880.63
394.16	874.48
394.37	831.48
394.57	800.76
394.78	821.24
394.99	825.33
395.19	866.29
395.40	835.57
395.60	839.67
395.81	888.82
396.02	849.91
396.22	923.63
396.43	882.67
396.64	866.29
396.84	872.43
397.05	929.78
397.26	862.19
397.46	835.57
397.67	886.77
397.87	862.19
398.08	843.76
398.29	829.43
398.49	903.15
398.70	849.91
398.91	804.85
399.11	878.58
399.32	847.86
399.52	829.43
399.73	874.48
399.94	915.44
400.14	823.28
400.35	888.82
400.56	868.34
400.76	841.72
400.97	911.35
401.17	860.15
401.38	876.53
401.59	833.52
401.79	872.43
402.00	835.57
402.20	837.62
402.41	923.63
402.62	915.44
402.82	894.96
403.03	833.52
403.23	811.00
403.44	917.49
403.65	964.59
403.85	1171.44
404.06	2125.79
404.26	3438.54
404.47	4229.06
404.68	4972.47
404.88	5076.91
405.09	4376.51
405.29	3626.95
405.50	3147.73
405.70	2830.29
405.91	2394.08
406.12	2009.06
406.32	1683.43
406.53	1445.87
406.73	1169.39
406.94	1040.37
407.15	1034.22
407.35	1110.00
407.56	1097.71
407.76	1234.93
407.97	1128.43
408.17	1118.19
408.38	1120.24
408.59	1085.42
408.79	1007.60
409.00	993.26
409.20	976.88
409.41	942.07
409.61	927.73
409.82	950.26
410.02	907.25
410.23	897.01
410.44	854.00
410.64	909.30
410.85	970.74
411.05	968.69
411.26	944.11
411.46	940.02
411.67	937.97
411.87	909.30
412.08	911.35
412.29	1028.08
412.49	933.87
412.70	929.78
412.90	929.78
413.11	919.54
413.31	985.07
413.52	942.07
413.72	931.83
413.93	925.68
414.13	976.88
414.34	974.83
414.54	1019.89
414.75	954.35
414.96	974.83
415.16	995.31
415.37	905.20
415.57	1011.70
415.78	985.07
415.98	976.88
416.19	956.40
416.39	999.41
416.60	1044.46
416.80	933.87
417.01	1009.65
417.21	1009.65
417.42	899.06
417.62	1007.60
417.83	989.17
418.03	980.98
418.24	983.02
418.44	985.07
418.65	1021.94
418.85	991.22
419.06	1003.50
419.26	1017.84
419.47	978.93
419.67	1034.22
419.88	989.17
420.08	921.59
420.29	950.26
420.49	948.21
420.70	1062.90
420.90	1021.94
421.11	1019.89
421.31	960.50
421.52	962.55
421.72	964.59
421.93	1019.89
422.13	944.11
422.34	1021.94
422.54	1034.22
422.75	978.93
422.95	1032.18
423.16	978.93
423.36	993.26
423.57	1046.51
423.77	997.36
423.98	1011.70
424.18	1030.13
424.39	1058.80
424.59	1042.42
424.80	1009.65
425.00	1073.14
425.21	1087.47
425.41	1095.66
425.62	1038.32
425.82	1058.80
426.03	1048.56
426.23	1085.42
426.43	1173.49
426.64	1054.70
426.84	1005.55
427.05	1060.85
427.25	1099.76
427.46	1073.14
427.66	1120.24
427.87	1099.76
428.07	1093.62
428.28	1003.50
428.48	1058.80
428.68	962.55
428.89	1118.19
429.09	1062.90
429.30	1062.90
429.50	1153.01
429.71	974.83
429.91	1064.94
430.12	1069.04
430.32	1085.42
430.52	1093.62
430.73	1134.57
430.93	1034.22
431.14	1040.37
431.34	1062.90
431.55	1066.99
431.75	1091.57
431.96	1066.99
432.16	1048.56
432.36	1171.44
432.57	1114.10
432.77	1134.57
432.98	1120.24
433.18	1165.29
433.39	1128.43
433.59	1165.29
433.79	1208.30
434.00	1220.59
434.20	1370.09
434.41	1249.26
434.61	1318.89
434.81	1429.48
435.02	2195.42
435.22	4810.68
435.43	9664.36
435.63	13236.02
435.84	15384.34
436.04	16174.86
436.24	14210.86
436.45	11685.71
436.65	9774.95
436.86	8818.55
437.06	7165.84
437.26	5945.25
437.47	5025.72
437.67	3985.35
437.88	3133.39
438.08	2441.18
438.28	1884.13
438.49	1544.17
438.69	1402.86
438.90	1251.31
439.10	1273.84
439.30	1200.11
439.51	1288.17
439.71	1259.50
439.92	1273.84
440.12	1245.16
440.32	1236.97
440.53	1267.69
440.73	1171.44
440.93	1249.26
441.14	1120.24
441.34	1167.34
441.55	1196.01
441.75	1251.31
441.95	1202.16
442.16	1224.69
442.36	1241.07
442.56	1216.49
442.77	1249.26
442.97	1146.86
443.18	1167.34
443.38	1177.58
443.58	1224.69
443.79	1095.66
443.99	1107.95
444.19	1218.54
444.40	1329.13
444.60	1249.26
444.80	1187.82
445.01	1322.99
445.21	1163.25
445.42	1105.90
445.62	1210.35
445.82	1183.73
446.03	1239.02
446.23	1132.53
446.43	1249.26
446.64	1232.88
446.84	1196.01
